# Averages over distance (i) for each depth (k):
# Depth(m) Speed(m/s) Density(kg/m^3) Salt PSU Theta(degC)
0.00 1541.9794 1023.3954 36.2064 27.7170
10.00 1542.1149 1023.4459 36.2087 27.6998
20.00 1542.2125 1023.5094 36.2191 27.6612
30.00 1542.1969 1023.6033 36.2443 27.5635
40.00 1542.0487 1023.7237 36.2772 27.4021
50.00 1541.8106 1023.8547 36.3080 27.2021
60.00 1541.5053 1023.9903 36.3340 26.9758
70.00 1541.1223 1024.1327 36.3561 26.7185
80.00 1540.6418 1024.2840 36.3744 26.4223
90.00 1540.0498 1024.4434 36.3863 26.0835
100.00 1539.3562 1024.6062 36.3890 25.7090
110.00 1538.6060 1024.7652 36.3818 25.3195
120.00 1537.8535 1024.9148 36.3666 24.9373
130.00 1537.1357 1025.0528 36.3460 24.5765
140.00 1536.4669 1025.1797 36.3219 24.2410
150.00 1535.8522 1025.2933 36.2931 23.9343
160.00 1535.2340 1025.4019 36.2599 23.6307
170.00 1534.6129 1025.5065 36.2230 23.3298
180.00 1533.8895 1025.6106 36.1751 22.9980
190.00 1533.1337 1025.7145 36.1237 22.6566
200.00 1532.2105 1025.8244 36.0618 22.2612
210.00 1531.1368 1025.9395 35.9904 21.8173
220.00 1530.0630 1026.0545 35.9190 21.3734
230.00 1528.6856 1026.1815 35.8365 20.8385
240.00 1527.1954 1026.3130 35.7499 20.2698
250.00 1525.7051 1026.4444 35.6633 19.7011
260.00 1524.1403 1026.5773 35.5770 19.1162
270.00 1522.3554 1026.7147 35.4918 18.4832
280.00 1520.5704 1026.8521 35.4066 17.8502
290.00 1518.7855 1026.9895 35.3214 17.2172
300.00 1517.0004 1027.1269 35.2363 16.5845
310.00 1515.1967 1027.2532 35.1677 15.9874
320.00 1513.3929 1027.3795 35.0992 15.3903
330.00 1511.5891 1027.5058 35.0306 14.7932
340.00 1509.7853 1027.6321 34.9621 14.1961
350.00 1507.9815 1027.7584 34.8936 13.5990
360.00 1506.4216 1027.8656 34.8467 13.1076
370.00 1504.8794 1027.9715 34.8014 12.6238
380.00 1503.3373 1028.0773 34.7561 12.1401
390.00 1501.7951 1028.1832 34.7108 11.6563
400.00 1500.2530 1028.2891 34.6655 11.1726
410.00 1498.7141 1028.3948 34.6204 10.6899
420.00 1497.6400 1028.4809 34.5984 10.3574
430.00 1496.5659 1028.5670 34.5763 10.0248
440.00 1495.4918 1028.6531 34.5542 9.6923
450.00 1494.4177 1028.7393 34.5322 9.3598
460.00 1493.3435 1028.8254 34.5101 9.0273
470.00 1492.2694 1028.9115 34.4881 8.6947
480.00 1491.3205 1028.9940 34.4703 8.3973
490.00 1490.7411 1029.0660 34.4651 8.2038
500.00 1490.1617 1029.1380 34.4599 8.0102
510.00 1489.5823 1029.2099 34.4547 7.8166
520.00 1489.0030 1029.2819 34.4495 7.6230
530.00 1488.4236 1029.3538 34.4443 7.4294
540.00 1487.8442 1029.4258 34.4391 7.2358
550.00 1487.2648 1029.4977 34.4340 7.0423
560.00 1486.9231 1029.5630 34.4337 6.9114
570.00 1486.6697 1029.6259 34.4353 6.8039
580.00 1486.4164 1029.6887 34.4369 6.6964
590.00 1486.1630 1029.7516 34.4385 6.5889
600.00 1485.9096 1029.8144 34.4401 6.4814
610.00 1485.6563 1029.8773 34.4417 6.3739
620.00 1485.4029 1029.9401 34.4433 6.2664
630.00 1485.1495 1030.0030 34.4449 6.1589
640.00 1484.9732 1030.0630 34.4468 6.0715
650.00 1484.8662 1030.1205 34.4491 6.0022
660.00 1484.7591 1030.1780 34.4514 5.9329
670.00 1484.6521 1030.2355 34.4537 5.8635
680.00 1484.5451 1030.2930 34.4559 5.7942
690.00 1484.4380 1030.3505 34.4582 5.7249
700.00 1484.3310 1030.4080 34.4605 5.6555
710.00 1484.2240 1030.4655 34.4628 5.5862
720.00 1484.1169 1030.5230 34.4650 5.5169
730.00 1484.0569 1030.5783 34.4669 5.4599
740.00 1484.0116 1030.6330 34.4686 5.4068
750.00 1483.9664 1030.6876 34.4703 5.3538
760.00 1483.9211 1030.7423 34.4721 5.3007
770.00 1483.8759 1030.7969 34.4738 5.2476
780.00 1483.8307 1030.8515 34.4755 5.1945
790.00 1483.7854 1030.9062 34.4772 5.1415
800.00 1483.7402 1030.9608 34.4789 5.0884
810.00 1483.6949 1031.0155 34.4807 5.0353
820.00 1483.6672 1031.0693 34.4823 4.9869
830.00 1483.6537 1031.1226 34.4837 4.9421
840.00 1483.6401 1031.1758 34.4852 4.8974
850.00 1483.6266 1031.2291 34.4867 4.8526
860.00 1483.6130 1031.2823 34.4882 4.8079
870.00 1483.5995 1031.3355 34.4897 4.7631
880.00 1483.5859 1031.3888 34.4912 4.7184
890.00 1483.5724 1031.4420 34.4927 4.6736
900.00 1483.5588 1031.4952 34.4942 4.6289
910.00 1483.5458 1031.5485 34.4957 4.5843
920.00 1483.5503 1031.6010 34.4972 4.5443
930.00 1483.5548 1031.6536 34.4987 4.5042
940.00 1483.5593 1031.7062 34.5002 4.4642
950.00 1483.5639 1031.7588 34.5018 4.4242
960.00 1483.5684 1031.8113 34.5033 4.3842
970.00 1483.5729 1031.8639 34.5048 4.3442
980.00 1483.5775 1031.9165 34.5063 4.3042
990.00 1483.5820 1031.9690 34.5079 4.2641
1000.00 1483.5865 1032.0216 34.5094 4.2241
1010.00 1483.5949 1032.0740 34.5109 4.1851
1020.00 1483.6128 1032.1261 34.5125 4.1486
1030.00 1483.6308 1032.1782 34.5141 4.1121
1040.00 1483.6488 1032.2303 34.5156 4.0756
1050.00 1483.6668 1032.2824 34.5172 4.0390
1060.00 1483.6847 1032.3345 34.5188 4.0025
1070.00 1483.7027 1032.3866 34.5203 3.9660
1080.00 1483.7207 1032.4386 34.5219 3.9295
1090.00 1483.7386 1032.4907 34.5235 3.8930
1100.00 1483.7566 1032.5428 34.5251 3.8565
1110.00 1483.7800 1032.5947 34.5266 3.8213
1120.00 1483.8110 1032.6462 34.5281 3.7882
1130.00 1483.8421 1032.6978 34.5296 3.7550
1140.00 1483.8732 1032.7493 34.5311 3.7219
1150.00 1483.9043 1032.8009 34.5326 3.6887
1160.00 1483.9354 1032.8524 34.5341 3.6555
1170.00 1483.9664 1032.9040 34.5355 3.6224
1180.00 1483.9975 1032.9555 34.5370 3.5892
1190.00 1484.0286 1033.0071 34.5385 3.5561
1200.00 1484.0597 1033.0586 34.5400 3.5229
1210.00 1484.0970 1033.1099 34.5415 3.4913
1220.00 1484.1419 1033.1610 34.5429 3.4616
1230.00 1484.1868 1033.2120 34.5443 3.4319
1240.00 1484.2317 1033.2630 34.5457 3.4022
1250.00 1484.2766 1033.3140 34.5472 3.3725
1260.00 1484.3216 1033.3650 34.5486 3.3427
1270.00 1484.3665 1033.4160 34.5500 3.3130
1280.00 1484.4114 1033.4670 34.5514 3.2833
1290.00 1484.4563 1033.5181 34.5528 3.2536
1300.00 1484.5013 1033.5691 34.5542 3.2239
1310.00 1484.5514 1033.6199 34.5556 3.1954
1320.00 1484.6102 1033.6704 34.5570 3.1691
1330.00 1484.6690 1033.7210 34.5584 3.1427
1340.00 1484.7277 1033.7715 34.5598 3.1164
1350.00 1484.7865 1033.8220 34.5612 3.0900
1360.00 1484.8453 1033.8726 34.5625 3.0636
1370.00 1484.9041 1033.9231 34.5639 3.0373
1380.00 1484.9628 1033.9736 34.5653 3.0109
1390.00 1485.0216 1034.0242 34.5667 2.9845
1400.00 1485.0804 1034.0747 34.5681 2.9582
1410.00 1485.1404 1034.1252 34.5695 2.9321
1420.00 1485.2141 1034.1752 34.5708 2.9093
1430.00 1485.2879 1034.2253 34.5722 2.8865
1440.00 1485.3616 1034.2753 34.5735 2.8636
1450.00 1485.4354 1034.3253 34.5749 2.8408
1460.00 1485.5091 1034.3754 34.5763 2.8180
1470.00 1485.5829 1034.4254 34.5776 2.7952
1480.00 1485.6566 1034.4755 34.5790 2.7723
1490.00 1485.7304 1034.5255 34.5803 2.7495
1500.00 1485.8041 1034.5755 34.5817 2.7267
1510.00 1485.8779 1034.6256 34.5830 2.7039
1520.00 1485.9563 1034.6755 34.5844 2.6821
1530.00 1486.0460 1034.7249 34.5857 2.6630
1540.00 1486.1358 1034.7744 34.5870 2.6439
1550.00 1486.2256 1034.8239 34.5883 2.6248
1560.00 1486.3154 1034.8734 34.5896 2.6057
1570.00 1486.4051 1034.9229 34.5910 2.5866
1580.00 1486.4949 1034.9724 34.5923 2.5674
1590.00 1486.5847 1035.0219 34.5936 2.5483
1600.00 1486.6745 1035.0714 34.5949 2.5292
1610.00 1486.7642 1035.1209 34.5962 2.5101
1620.00 1486.8540 1035.1704 34.5975 2.4910
1630.00 1486.9438 1035.2199 34.5988 2.4719
1640.00 1487.0439 1035.2690 34.6001 2.4552
1650.00 1487.1514 1035.3178 34.6012 2.4401
1660.00 1487.2589 1035.3667 34.6024 2.4251
1670.00 1487.3664 1035.4155 34.6036 2.4100
1680.00 1487.4739 1035.4643 34.6048 2.3950
1690.00 1487.5814 1035.5132 34.6060 2.3799
1700.00 1487.6889 1035.5620 34.6071 2.3649
1710.00 1487.7965 1035.6109 34.6083 2.3498
1720.00 1487.9040 1035.6597 34.6095 2.3348
1730.00 1488.0115 1035.7085 34.6107 2.3197
1740.00 1488.1190 1035.7574 34.6118 2.3047
1750.00 1488.2265 1035.8062 34.6130 2.2896
1760.00 1488.3340 1035.8550 34.6142 2.2746
1770.00 1488.4490 1035.9036 34.6153 2.2612
1780.00 1488.5718 1035.9518 34.6163 2.2496
1790.00 1488.6947 1036.0000 34.6173 2.2380
1800.00 1488.8175 1036.0482 34.6183 2.2264
1810.00 1488.9404 1036.0964 34.6192 2.2149
1820.00 1489.0632 1036.1445 34.6202 2.2033
1830.00 1489.1861 1036.1927 34.6212 2.1917
1840.00 1489.3089 1036.2409 34.6222 2.1801
1850.00 1489.4317 1036.2891 34.6232 2.1685
1860.00 1489.5546 1036.3373 34.6242 2.1569
1870.00 1489.6774 1036.3855 34.6252 2.1453
1880.00 1489.8003 1036.4337 34.6262 2.1337
1890.00 1489.9231 1036.4819 34.6272 2.1222
1900.00 1490.0460 1036.5301 34.6282 2.1106
1910.00 1490.1688 1036.5783 34.6292 2.0990
1920.00 1490.2996 1036.6261 34.6300 2.0892
1930.00 1490.4360 1036.6737 34.6308 2.0806
1940.00 1490.5724 1036.7213 34.6315 2.0720
1950.00 1490.7088 1036.7688 34.6323 2.0634
1960.00 1490.8452 1036.8164 34.6331 2.0549
1970.00 1490.9816 1036.8639 34.6338 2.0463
1980.00 1491.1180 1036.9115 34.6346 2.0377
1990.00 1491.2544 1036.9591 34.6354 2.0292
2000.00 1491.3908 1037.0066 34.6361 2.0206
2010.00 1491.5272 1037.0542 34.6369 2.0120
2020.00 1491.6636 1037.1017 34.6376 2.0034
2030.00 1491.8000 1037.1493 34.6384 1.9949
2040.00 1491.9364 1037.1969 34.6392 1.9863
2050.00 1492.0728 1037.2444 34.6399 1.9777
2060.00 1492.2092 1037.2920 34.6407 1.9691
2070.00 1492.3456 1037.3395 34.6415 1.9606
2080.00 1492.4820 1037.3871 34.6422 1.9520
2090.00 1492.6237 1037.4344 34.6429 1.9446
2100.00 1492.7690 1037.4814 34.6435 1.9379
2110.00 1492.9143 1037.5285 34.6440 1.9312
2120.00 1493.0596 1037.5756 34.6446 1.9246
2130.00 1493.2049 1037.6227 34.6452 1.9179
2140.00 1493.3502 1037.6698 34.6458 1.9112
2150.00 1493.4955 1037.7168 34.6464 1.9045
2160.00 1493.6408 1037.7639 34.6469 1.8979
2170.00 1493.7861 1037.8110 34.6475 1.8912
2180.00 1493.9314 1037.8581 34.6481 1.8845
2190.00 1494.0767 1037.9051 34.6487 1.8779
2200.00 1494.2220 1037.9522 34.6493 1.8712
2210.00 1494.3673 1037.9993 34.6499 1.8645
2220.00 1494.5126 1038.0464 34.6504 1.8579
2230.00 1494.6579 1038.0934 34.6510 1.8512
2240.00 1494.8032 1038.1405 34.6516 1.8445
2250.00 1494.9484 1038.1876 34.6522 1.8379
2260.00 1495.0937 1038.2347 34.6528 1.8312
2270.00 1495.2390 1038.2817 34.6533 1.8245
2280.00 1495.3880 1038.3286 34.6538 1.8186
2290.00 1495.5431 1038.3751 34.6542 1.8140
2300.00 1495.6981 1038.4216 34.6545 1.8094
2310.00 1495.8531 1038.4680 34.6548 1.8049
2320.00 1496.0082 1038.5145 34.6552 1.8003
2330.00 1496.1632 1038.5610 34.6555 1.7957
2340.00 1496.3183 1038.6075 34.6558 1.7911
2350.00 1496.4733 1038.6540 34.6562 1.7865
2360.00 1496.6283 1038.7004 34.6565 1.7819
2370.00 1496.7834 1038.7469 34.6568 1.7773
2380.00 1496.9384 1038.7934 34.6572 1.7727
2390.00 1497.0935 1038.8399 34.6575 1.7681
2400.00 1497.2485 1038.8864 34.6578 1.7635
2410.00 1497.4035 1038.9329 34.6582 1.7589
2420.00 1497.5586 1038.9793 34.6585 1.7543
2430.00 1497.7136 1039.0258 34.6588 1.7498
2440.00 1497.8687 1039.0723 34.6592 1.7452
2450.00 1498.0237 1039.1188 34.6595 1.7406
2460.00 1498.1788 1039.1653 34.6598 1.7360
2470.00 1498.3338 1039.2117 34.6602 1.7314
2480.00 1498.4888 1039.2582 34.6605 1.7268
2490.00 1498.6439 1039.3047 34.6608 1.7222
2500.00 1498.7599 1039.3529 34.6617 1.7085
2510.00 1498.9351 1039.3983 34.6617 1.7083
2520.00 1499.1103 1039.4438 34.6617 1.7081
2530.00 1499.2855 1039.4892 34.6618 1.7079
2540.00 1499.4608 1039.5347 34.6618 1.7077
2550.00 1499.6360 1039.5802 34.6618 1.7075
2560.00 1499.8112 1039.6256 34.6618 1.7073
2570.00 1499.9864 1039.6711 34.6618 1.7071
2580.00 1500.1616 1039.7165 34.6618 1.7069
2590.00 1500.3368 1039.7620 34.6618 1.7067
2600.00 1500.5120 1039.8075 34.6619 1.7065
2610.00 1500.6872 1039.8529 34.6619 1.7063
2620.00 1500.8624 1039.8984 34.6619 1.7061
2630.00 1501.0376 1039.9438 34.6619 1.7059
2640.00 1501.2128 1039.9893 34.6619 1.7057
2650.00 1501.3880 1040.0348 34.6619 1.7055
2660.00 1501.5632 1040.0802 34.6619 1.7053
2670.00 1501.7384 1040.1257 34.6620 1.7051
2680.00 1501.9136 1040.1711 34.6620 1.7049
2690.00 1502.0888 1040.2166 34.6620 1.7047
2700.00 1502.2641 1040.2620 34.6620 1.7045
2710.00 1502.4393 1040.3075 34.6620 1.7043
2720.00 1502.6145 1040.3530 34.6620 1.7041
2730.00 1502.7272 1040.4014 34.6630 1.6895
2740.00 1502.8670 1040.4484 34.6636 1.6810
2750.00 1503.0067 1040.4953 34.6642 1.6724
2760.00 1503.1465 1040.5423 34.6647 1.6639
2770.00 1503.2862 1040.5893 34.6653 1.6554
2780.00 1503.4260 1040.6362 34.6659 1.6469
2790.00 1503.5657 1040.6832 34.6664 1.6384
2800.00 1503.7055 1040.7302 34.6670 1.6298
2810.00 1503.8452 1040.7771 34.6676 1.6213
2820.00 1503.9849 1040.8241 34.6682 1.6128
2830.00 1504.1247 1040.8711 34.6687 1.6043
2840.00 1504.2644 1040.9180 34.6693 1.5958
2850.00 1504.4042 1040.9650 34.6699 1.5873
2860.00 1504.5439 1041.0119 34.6704 1.5787
2870.00 1504.6837 1041.0589 34.6710 1.5702
2880.00 1504.8234 1041.1059 34.6716 1.5617
2890.00 1504.9632 1041.1528 34.6722 1.5532
2900.00 1505.1029 1041.1998 34.6727 1.5447
2910.00 1505.2427 1041.2468 34.6733 1.5361
2920.00 1505.3824 1041.2937 34.6739 1.5276
2930.00 1505.5222 1041.3407 34.6744 1.5191
2940.00 1505.6619 1041.3877 34.6750 1.5106
2950.00 1505.8017 1041.4346 34.6756 1.5021
2960.00 1505.9414 1041.4816 34.6761 1.4935
2970.00 1506.0812 1041.5286 34.6767 1.4850
2980.00 1506.2209 1041.5755 34.6773 1.4765
2990.00 1506.3607 1041.6225 34.6779 1.4680
3000.00 nan nan nan nan
3010.00 nan nan nan nan
3020.00 nan nan nan nan
3030.00 nan nan nan nan
3040.00 nan nan nan nan
3050.00 nan nan nan nan
3060.00 nan nan nan nan
3070.00 nan nan nan nan
3080.00 nan nan nan nan
3090.00 nan nan nan nan
3100.00 nan nan nan nan
3110.00 nan nan nan nan
3120.00 nan nan nan nan
3130.00 nan nan nan nan
3140.00 nan nan nan nan
3150.00 nan nan nan nan
3160.00 nan nan nan nan
3170.00 nan nan nan nan
3180.00 nan nan nan nan
3190.00 nan nan nan nan
3200.00 nan nan nan nan
3210.00 nan nan nan nan
3220.00 nan nan nan nan
3230.00 nan nan nan nan
3240.00 nan nan nan nan
3250.00 nan nan nan nan
3260.00 nan nan nan nan
3270.00 nan nan nan nan
3280.00 nan nan nan nan
3290.00 nan nan nan nan
3300.00 nan nan nan nan
3310.00 nan nan nan nan
3320.00 nan nan nan nan
3330.00 nan nan nan nan
3340.00 nan nan nan nan
3350.00 nan nan nan nan
3360.00 nan nan nan nan
3370.00 nan nan nan nan
3380.00 nan nan nan nan
3390.00 nan nan nan nan
3400.00 nan nan nan nan
3410.00 nan nan nan nan
3420.00 nan nan nan nan
3430.00 nan nan nan nan
3440.00 nan nan nan nan
3450.00 nan nan nan nan
3460.00 nan nan nan nan
3470.00 nan nan nan nan
3480.00 nan nan nan nan
3490.00 nan nan nan nan
3500.00 nan nan nan nan
3510.00 nan nan nan nan
3520.00 nan nan nan nan
3530.00 nan nan nan nan
3540.00 nan nan nan nan
3550.00 nan nan nan nan
3560.00 nan nan nan nan
3570.00 nan nan nan nan
3580.00 nan nan nan nan
3590.00 nan nan nan nan
3600.00 nan nan nan nan
3610.00 nan nan nan nan
3620.00 nan nan nan nan
3630.00 nan nan nan nan
3640.00 nan nan nan nan
3650.00 nan nan nan nan
3660.00 nan nan nan nan
3670.00 nan nan nan nan
3680.00 nan nan nan nan
3690.00 nan nan nan nan
3700.00 nan nan nan nan
3710.00 nan nan nan nan
3720.00 nan nan nan nan
3730.00 nan nan nan nan
3740.00 nan nan nan nan
3750.00 nan nan nan nan
3760.00 nan nan nan nan
3770.00 nan nan nan nan
3780.00 nan nan nan nan
3790.00 nan nan nan nan
3800.00 nan nan nan nan
3810.00 nan nan nan nan
3820.00 nan nan nan nan
3830.00 nan nan nan nan
3840.00 nan nan nan nan
3850.00 nan nan nan nan
3860.00 nan nan nan nan
3870.00 nan nan nan nan
3880.00 nan nan nan nan
3890.00 nan nan nan nan
3900.00 nan nan nan nan
3910.00 nan nan nan nan
3920.00 nan nan nan nan
3930.00 nan nan nan nan
3940.00 nan nan nan nan
3950.00 nan nan nan nan
3960.00 nan nan nan nan
3970.00 nan nan nan nan
3980.00 nan nan nan nan
3990.00 nan nan nan nan
4000.00 nan nan nan nan
4010.00 nan nan nan nan
4020.00 nan nan nan nan
4030.00 nan nan nan nan
4040.00 nan nan nan nan
4050.00 nan nan nan nan
4060.00 nan nan nan nan
4070.00 nan nan nan nan
4080.00 nan nan nan nan
4090.00 nan nan nan nan
4100.00 nan nan nan nan
4110.00 nan nan nan nan
4120.00 nan nan nan nan
4130.00 nan nan nan nan
4140.00 nan nan nan nan
4150.00 nan nan nan nan
4160.00 nan nan nan nan
4170.00 nan nan nan nan
4180.00 nan nan nan nan
4190.00 nan nan nan nan
4200.00 nan nan nan nan
4210.00 nan nan nan nan
4220.00 nan nan nan nan
4230.00 nan nan nan nan
4240.00 nan nan nan nan
4250.00 nan nan nan nan
4260.00 nan nan nan nan
4270.00 nan nan nan nan
4280.00 nan nan nan nan
4290.00 nan nan nan nan
4300.00 nan nan nan nan
4310.00 nan nan nan nan
4320.00 nan nan nan nan
4330.00 nan nan nan nan
4340.00 nan nan nan nan
4350.00 nan nan nan nan
4360.00 nan nan nan nan
4370.00 nan nan nan nan
4380.00 nan nan nan nan
4390.00 nan nan nan nan
4400.00 nan nan nan nan
4410.00 nan nan nan nan
4420.00 nan nan nan nan
4430.00 nan nan nan nan
4440.00 nan nan nan nan
4450.00 nan nan nan nan
4460.00 nan nan nan nan
4470.00 nan nan nan nan
4480.00 nan nan nan nan
4490.00 nan nan nan nan
4500.00 nan nan nan nan
4510.00 nan nan nan nan
4520.00 nan nan nan nan
4530.00 nan nan nan nan
4540.00 nan nan nan nan
4550.00 nan nan nan nan
4560.00 nan nan nan nan
4570.00 nan nan nan nan
4580.00 nan nan nan nan
4590.00 nan nan nan nan
4600.00 nan nan nan nan
4610.00 nan nan nan nan
4620.00 nan nan nan nan
4630.00 nan nan nan nan
4640.00 nan nan nan nan
4650.00 nan nan nan nan
4660.00 nan nan nan nan
4670.00 nan nan nan nan
4680.00 nan nan nan nan
4690.00 nan nan nan nan
4700.00 nan nan nan nan
4710.00 nan nan nan nan
4720.00 nan nan nan nan
4730.00 nan nan nan nan
4740.00 nan nan nan nan
4750.00 nan nan nan nan
4760.00 nan nan nan nan
4770.00 nan nan nan nan
4780.00 nan nan nan nan
4790.00 nan nan nan nan
4800.00 nan nan nan nan
4810.00 nan nan nan nan
4820.00 nan nan nan nan
4830.00 nan nan nan nan
4840.00 nan nan nan nan
4850.00 nan nan nan nan
4860.00 nan nan nan nan
4870.00 nan nan nan nan
4880.00 nan nan nan nan
4890.00 nan nan nan nan
4900.00 nan nan nan nan
4910.00 nan nan nan nan
4920.00 nan nan nan nan
4930.00 nan nan nan nan
4940.00 nan nan nan nan
4950.00 nan nan nan nan
4960.00 nan nan nan nan
4970.00 nan nan nan nan
4980.00 nan nan nan nan
4990.00 nan nan nan nan
5000.00 nan nan nan nan
5010.00 nan nan nan nan
5020.00 nan nan nan nan
5030.00 nan nan nan nan
5040.00 nan nan nan nan
5050.00 nan nan nan nan
5060.00 nan nan nan nan
5070.00 nan nan nan nan
5080.00 nan nan nan nan
5090.00 nan nan nan nan
5100.00 nan nan nan nan
5110.00 nan nan nan nan
5120.00 nan nan nan nan
5130.00 nan nan nan nan
5140.00 nan nan nan nan
5150.00 nan nan nan nan
5160.00 nan nan nan nan
5170.00 nan nan nan nan
5180.00 nan nan nan nan
5190.00 nan nan nan nan
5200.00 nan nan nan nan
5210.00 nan nan nan nan
5220.00 nan nan nan nan
5230.00 nan nan nan nan
5240.00 nan nan nan nan
5250.00 nan nan nan nan
5260.00 nan nan nan nan
5270.00 nan nan nan nan
5280.00 nan nan nan nan
5290.00 nan nan nan nan
5300.00 nan nan nan nan
5310.00 nan nan nan nan
5320.00 nan nan nan nan
5330.00 nan nan nan nan
5340.00 nan nan nan nan
5350.00 nan nan nan nan
5360.00 nan nan nan nan
5370.00 nan nan nan nan
5380.00 nan nan nan nan
5390.00 nan nan nan nan
5400.00 nan nan nan nan
5410.00 nan nan nan nan
5420.00 nan nan nan nan
5430.00 nan nan nan nan
5440.00 nan nan nan nan
5450.00 nan nan nan nan
5460.00 nan nan nan nan
5470.00 nan nan nan nan
5480.00 nan nan nan nan
5490.00 nan nan nan nan
5500.00 nan nan nan nan
5510.00 nan nan nan nan
5520.00 nan nan nan nan
5530.00 nan nan nan nan
5540.00 nan nan nan nan
5550.00 nan nan nan nan
5560.00 nan nan nan nan
5570.00 nan nan nan nan
5580.00 nan nan nan nan
5590.00 nan nan nan nan
5600.00 nan nan nan nan
5610.00 nan nan nan nan
5620.00 nan nan nan nan
5630.00 nan nan nan nan
5640.00 nan nan nan nan
5650.00 nan nan nan nan
5660.00 nan nan nan nan
5670.00 nan nan nan nan
5680.00 nan nan nan nan
5690.00 nan nan nan nan
5700.00 nan nan nan nan
5710.00 nan nan nan nan
5720.00 nan nan nan nan
5730.00 nan nan nan nan
5740.00 nan nan nan nan
5750.00 nan nan nan nan
5760.00 nan nan nan nan
5770.00 nan nan nan nan
5780.00 nan nan nan nan
5790.00 nan nan nan nan
5800.00 nan nan nan nan
5810.00 nan nan nan nan
5820.00 nan nan nan nan
5830.00 nan nan nan nan
5840.00 nan nan nan nan
5850.00 nan nan nan nan
5860.00 nan nan nan nan
5870.00 nan nan nan nan
5880.00 nan nan nan nan
5890.00 nan nan nan nan
5900.00 nan nan nan nan
5910.00 nan nan nan nan
5920.00 nan nan nan nan
5930.00 nan nan nan nan
5940.00 nan nan nan nan
5950.00 nan nan nan nan
5960.00 nan nan nan nan
5970.00 nan nan nan nan
5980.00 nan nan nan nan
5990.00 nan nan nan nan
6000.00 nan nan nan nan
6010.00 nan nan nan nan
6020.00 nan nan nan nan
6030.00 nan nan nan nan
6040.00 nan nan nan nan
6050.00 nan nan nan nan
6060.00 nan nan nan nan
6070.00 nan nan nan nan
6080.00 nan nan nan nan
6090.00 nan nan nan nan
6100.00 nan nan nan nan
6110.00 nan nan nan nan
6120.00 nan nan nan nan
6130.00 nan nan nan nan
6140.00 nan nan nan nan
6150.00 nan nan nan nan
6160.00 nan nan nan nan
6170.00 nan nan nan nan
6180.00 nan nan nan nan
6190.00 nan nan nan nan
6200.00 nan nan nan nan
6210.00 nan nan nan nan
6220.00 nan nan nan nan
6230.00 nan nan nan nan
6240.00 nan nan nan nan
6250.00 nan nan nan nan
6260.00 nan nan nan nan
6270.00 nan nan nan nan
6280.00 nan nan nan nan
6290.00 nan nan nan nan
6300.00 nan nan nan nan
6310.00 nan nan nan nan
6320.00 nan nan nan nan
6330.00 nan nan nan nan
6340.00 nan nan nan nan
6350.00 nan nan nan nan
6360.00 nan nan nan nan
6370.00 nan nan nan nan
6380.00 nan nan nan nan
6390.00 nan nan nan nan
6400.00 nan nan nan nan
6410.00 nan nan nan nan
6420.00 nan nan nan nan
6430.00 nan nan nan nan
6440.00 nan nan nan nan
6450.00 nan nan nan nan
6460.00 nan nan nan nan
6470.00 nan nan nan nan
6480.00 nan nan nan nan
6490.00 nan nan nan nan
6500.00 nan nan nan nan
6510.00 nan nan nan nan
6520.00 nan nan nan nan
6530.00 nan nan nan nan
6540.00 nan nan nan nan
6550.00 nan nan nan nan
6560.00 nan nan nan nan
6570.00 nan nan nan nan
6580.00 nan nan nan nan
6590.00 nan nan nan nan
6600.00 nan nan nan nan
6610.00 nan nan nan nan
6620.00 nan nan nan nan
6630.00 nan nan nan nan
6640.00 nan nan nan nan
6650.00 nan nan nan nan
6660.00 nan nan nan nan
6670.00 nan nan nan nan
6680.00 nan nan nan nan
6690.00 nan nan nan nan
6700.00 nan nan nan nan
6710.00 nan nan nan nan
6720.00 nan nan nan nan
6730.00 nan nan nan nan
6740.00 nan nan nan nan
6750.00 nan nan nan nan
6760.00 nan nan nan nan
6770.00 nan nan nan nan
6780.00 nan nan nan nan
6790.00 nan nan nan nan
6800.00 nan nan nan nan
6810.00 nan nan nan nan
6820.00 nan nan nan nan
6830.00 nan nan nan nan
6840.00 nan nan nan nan
6850.00 nan nan nan nan
6860.00 nan nan nan nan
6870.00 nan nan nan nan
6880.00 nan nan nan nan
6890.00 nan nan nan nan
6900.00 nan nan nan nan
6910.00 nan nan nan nan
6920.00 nan nan nan nan
6930.00 nan nan nan nan
6940.00 nan nan nan nan
6950.00 nan nan nan nan
6960.00 nan nan nan nan
6970.00 nan nan nan nan
6980.00 nan nan nan nan
6990.00 nan nan nan nan
7000.00 nan nan nan nan
7010.00 nan nan nan nan
7020.00 nan nan nan nan
7030.00 nan nan nan nan
7040.00 nan nan nan nan
7050.00 nan nan nan nan
7060.00 nan nan nan nan
7070.00 nan nan nan nan
7080.00 nan nan nan nan
7090.00 nan nan nan nan
7100.00 nan nan nan nan
7110.00 nan nan nan nan
7120.00 nan nan nan nan
7130.00 nan nan nan nan
7140.00 nan nan nan nan
7150.00 nan nan nan nan
7160.00 nan nan nan nan
7170.00 nan nan nan nan
7180.00 nan nan nan nan
7190.00 nan nan nan nan
7200.00 nan nan nan nan
7210.00 nan nan nan nan
7220.00 nan nan nan nan
7230.00 nan nan nan nan
7240.00 nan nan nan nan
7250.00 nan nan nan nan
7260.00 nan nan nan nan
7270.00 nan nan nan nan
7280.00 nan nan nan nan
7290.00 nan nan nan nan
7300.00 nan nan nan nan
7310.00 nan nan nan nan
7320.00 nan nan nan nan
7330.00 nan nan nan nan
7340.00 nan nan nan nan
7350.00 nan nan nan nan
7360.00 nan nan nan nan
7370.00 nan nan nan nan
7380.00 nan nan nan nan
7390.00 nan nan nan nan
7400.00 nan nan nan nan
7410.00 nan nan nan nan
7420.00 nan nan nan nan
7430.00 nan nan nan nan
7440.00 nan nan nan nan
7450.00 nan nan nan nan
7460.00 nan nan nan nan
7470.00 nan nan nan nan
7480.00 nan nan nan nan
7490.00 nan nan nan nan
7500.00 nan nan nan nan
7510.00 nan nan nan nan
7520.00 nan nan nan nan
7530.00 nan nan nan nan
7540.00 nan nan nan nan
7550.00 nan nan nan nan
7560.00 nan nan nan nan
7570.00 nan nan nan nan
7580.00 nan nan nan nan
7590.00 nan nan nan nan
7600.00 nan nan nan nan
7610.00 nan nan nan nan
7620.00 nan nan nan nan
7630.00 nan nan nan nan
7640.00 nan nan nan nan
7650.00 nan nan nan nan
7660.00 nan nan nan nan
7670.00 nan nan nan nan
7680.00 nan nan nan nan
7690.00 nan nan nan nan
7700.00 nan nan nan nan
7710.00 nan nan nan nan
7720.00 nan nan nan nan
7730.00 nan nan nan nan
7740.00 nan nan nan nan
7750.00 nan nan nan nan
7760.00 nan nan nan nan
7770.00 nan nan nan nan
7780.00 nan nan nan nan
7790.00 nan nan nan nan
7800.00 nan nan nan nan
7810.00 nan nan nan nan
7820.00 nan nan nan nan
7830.00 nan nan nan nan
7840.00 nan nan nan nan
7850.00 nan nan nan nan
7860.00 nan nan nan nan
7870.00 nan nan nan nan
7880.00 nan nan nan nan
7890.00 nan nan nan nan
7900.00 nan nan nan nan
7910.00 nan nan nan nan
7920.00 nan nan nan nan
7930.00 nan nan nan nan
7940.00 nan nan nan nan
7950.00 nan nan nan nan
7960.00 nan nan nan nan
7970.00 nan nan nan nan
7980.00 nan nan nan nan
7990.00 nan nan nan nan
